! Start: 10°
! Ende: 120°
! Schritt: 0,01°
! Messzeit: 5s
#2Theta  I (pcs)
10.0000   114
10.0100   119
10.0200   111
10.0300   108
10.0400   110
10.0500   121
10.0600   103
10.0700   119
10.0800   114
10.0900   118
10.1000   113
10.1100   112
10.1200   85
10.1300   102
10.1400   122
10.1500   124
10.1600   121
10.1700   94
10.1800   102
10.1900   105
10.2000   132
10.2100   128
10.2200   91
10.2300   112
10.2400   87
10.2500   106
10.2600   111
10.2700   110
10.2800   103
10.2900   108
10.3000   107
10.3100   106
10.3200   102
10.3300   122
10.3400   121
10.3500   97
10.3600   119
10.3700   93
10.3800   101
10.3900   108
10.4000   106
10.4100   86
10.4200   89
10.4300   98
10.4400   111
10.4500   109
10.4600   113
10.4700   111
10.4800   97
10.4900   109
10.5000   117
10.5100   88
10.5200   103
10.5300   120
10.5400   108
10.5500   115
10.5600   109
10.5700   82
10.5800   95
10.5900   96
10.6000   101
10.6100   113
10.6200   83
10.6300   115
10.6400   114
10.6500   100
10.6600   103
10.6700   82
10.6800   106
10.6900   86
10.7000   104
10.7100   102
10.7200   105
10.7300   94
10.7400   100
10.7500   120
10.7600   109
10.7700   120
10.7800   90
10.7900   91
10.8000   90
10.8100   98
10.8200   116
10.8300   96
10.8400   104
10.8500   109
10.8600   76
10.8700   96
10.8800   98
10.8900   100
10.9000   102
10.9100   106
10.9200   123
10.9300   99
10.9400   93
10.9500   99
10.9600   101
10.9700   97
10.9800   102
10.9900   108
11.0000   105
11.0100   106
11.0200   103
11.0300   93
11.0400   98
11.0500   92
11.0600   92
11.0700   109
11.0800   100
11.0900   90
11.1000   100
11.1100   103
11.1200   79
11.1300   97
11.1400   88
11.1500   87
11.1600   86
11.1700   93
11.1800   85
11.1900   93
11.2000   89
11.2100   89
11.2200   95
11.2300   94
11.2400   93
11.2500   89
11.2600   90
11.2700   104
11.2800   98
11.2900   106
11.3000   107
11.3100   90
11.3200   128
11.3300   103
11.3400   105
11.3500   90
11.3600   88
11.3700   100
11.3800   108
11.3900   87
11.4000   117
11.4100   107
11.4200   97
11.4300   91
11.4400   100
11.4500   83
11.4600   101
11.4700   81
11.4800   91
11.4900   87
11.5000   91
11.5100   103
11.5200   84
11.5300   103
11.5400   86
11.5500   80
11.5600   95
11.5700   92
11.5800   93
11.5900   99
11.6000   81
11.6100   103
11.6200   101
11.6300   77
11.6400   75
11.6500   110
11.6600   92
11.6700   89
11.6800   97
11.6900   103
11.7000   105
11.7100   72
11.7200   85
11.7300   100
11.7400   83
11.7500   100
11.7600   96
11.7700   89
11.7800   92
11.7900   84
11.8000   95
11.8100   87
11.8200   102
11.8300   97
11.8400   92
11.8500   83
11.8600   88
11.8700   92
11.8800   89
11.8900   104
11.9000   82
11.9100   76
11.9200   90
11.9300   77
11.9400   87
11.9500   102
11.9600   85
11.9700   96
11.9800   96
11.9900   94
12.0000   71
12.0100   73
12.0200   97
12.0300   100
12.0400   88
12.0500   99
12.0600   80
12.0700   101
12.0800   85
12.0900   82
12.1000   90
12.1100   76
12.1200   79
12.1300   78
12.1400   85
12.1500   90
12.1600   93
12.1700   88
12.1800   88
12.1900   88
12.2000   88
12.2100   65
12.2200   75
12.2300   75
12.2400   93
12.2500   107
12.2600   85
12.2700   70
12.2800   83
12.2900   68
12.3000   101
12.3100   75
12.3200   79
12.3300   88
12.3400   104
12.3500   85
12.3600   85
12.3700   87
12.3800   69
12.3900   74
12.4000   86
12.4100   89
12.4200   80
12.4300   96
12.4400   76
12.4500   86
12.4600   65
12.4700   74
12.4800   76
12.4900   87
12.5000   86
12.5100   78
12.5200   88
12.5300   78
12.5400   88
12.5500   89
12.5600   91
12.5700   92
12.5800   77
12.5900   84
12.6000   81
12.6100   74
12.6200   88
12.6300   77
12.6400   79
12.6500   85
12.6600   85
12.6700   74
12.6800   80
12.6900   86
12.7000   88
12.7100   70
12.7200   92
12.7300   75
12.7400   74
12.7500   87
12.7600   92
12.7700   82
12.7800   106
12.7900   74
12.8000   82
12.8100   78
12.8200   64
12.8300   80
12.8400   83
12.8500   99
12.8600   81
12.8700   68
12.8800   87
12.8900   95
12.9000   54
12.9100   76
12.9200   72
12.9300   73
12.9400   95
12.9500   91
12.9600   51
12.9700   65
12.9800   89
12.9900   71
13.0000   77
13.0100   69
13.0200   86
13.0300   85
13.0400   69
13.0500   90
13.0600   76
13.0700   94
13.0800   80
13.0900   74
13.1000   90
13.1100   67
13.1200   65
13.1300   78
13.1400   68
13.1500   84
13.1600   61
13.1700   71
13.1800   60
13.1900   70
13.2000   71
13.2100   59
13.2200   66
13.2300   80
13.2400   76
13.2500   70
13.2600   68
13.2700   72
13.2800   68
13.2900   72
13.3000   70
13.3100   70
13.3200   58
13.3300   81
13.3400   79
13.3500   69
13.3600   69
13.3700   77
13.3800   84
13.3900   75
13.4000   84
13.4100   65
13.4200   69
13.4300   78
13.4400   70
13.4500   81
13.4600   92
13.4700   70
13.4800   72
13.4900   71
13.5000   64
13.5100   80
13.5200   60
13.5300   75
13.5400   78
13.5500   65
13.5600   71
13.5700   79
13.5800   57
13.5900   70
13.6000   77
13.6100   66
13.6200   67
13.6300   60
13.6400   71
13.6500   80
13.6600   83
13.6700   65
13.6800   67
13.6900   59
13.7000   65
13.7100   80
13.7200   76
13.7300   61
13.7400   80
13.7500   54
13.7600   78
13.7700   54
13.7800   76
13.7900   82
13.8000   74
13.8100   90
13.8200   66
13.8300   62
13.8400   72
13.8500   70
13.8600   75
13.8700   71
13.8800   89
13.8900   63
13.9000   86
13.9100   56
13.9200   84
13.9300   61
13.9400   61
13.9500   67
13.9600   64
13.9700   71
13.9800   69
13.9900   77
14.0000   77
14.0100   90
14.0200   72
14.0300   69
14.0400   61
14.0500   75
14.0600   82
14.0700   78
14.0800   59
14.0900   70
14.1000   61
14.1100   82
14.1200   62
14.1300   71
14.1400   97
14.1500   70
14.1600   78
14.1700   82
14.1800   69
14.1900   64
14.2000   72
14.2100   90
14.2200   80
14.2300   74
14.2400   64
14.2500   84
14.2600   71
14.2700   79
14.2800   82
14.2900   84
14.3000   59
14.3100   68
14.3200   76
14.3300   78
14.3400   86
14.3500   84
14.3600   84
14.3700   65
14.3800   83
14.3900   74
14.4000   73
14.4100   79
14.4200   79
14.4300   80
14.4400   90
14.4500   100
14.4600   76
14.4700   86
14.4800   67
14.4900   65
14.5000   89
14.5100   88
14.5200   82
14.5300   84
14.5400   99
14.5500   105
14.5600   87
14.5700   85
14.5800   111
14.5900   100
14.6000   74
14.6100   90
14.6200   93
14.6300   100
14.6400   106
14.6500   110
14.6600   101
14.6700   119
14.6800   102
14.6900   120
14.7000   94
14.7100   116
14.7200   88
14.7300   111
14.7400   94
14.7500   105
14.7600   103
14.7700   101
14.7800   108
14.7900   120
14.8000   128
14.8100   105
14.8200   116
14.8300   114
14.8400   121
14.8500   115
14.8600   108
14.8700   109
14.8800   110
14.8900   113
14.9000   118
14.9100   111
14.9200   129
14.9300   136
14.9400   131
14.9500   115
14.9600   120
14.9700   114
14.9800   121
14.9900   126
15.0000   92
15.0100   133
15.0200   96
15.0300   97
15.0400   116
15.0500   118
15.0600   103
15.0700   120
15.0800   103
15.0900   119
15.1000   124
15.1100   95
15.1200   91
15.1300   112
15.1400   93
15.1500   84
15.1600   99
15.1700   96
15.1800   99
15.1900   99
15.2000   115
15.2100   94
15.2200   95
15.2300   108
15.2400   110
15.2500   98
15.2600   92
15.2700   94
15.2800   104
15.2900   97
15.3000   95
15.3100   80
15.3200   87
15.3300   85
15.3400   89
15.3500   92
15.3600   84
15.3700   84
15.3800   90
15.3900   86
15.4000   77
15.4100   93
15.4200   77
15.4300   82
15.4400   95
15.4500   87
15.4600   72
15.4700   71
15.4800   88
15.4900   89
15.5000   98
15.5100   96
15.5200   82
15.5300   94
15.5400   83
15.5500   85
15.5600   96
15.5700   94
15.5800   89
15.5900   94
15.6000   91
15.6100   86
15.6200   89
15.6300   91
15.6400   81
15.6500   81
15.6600   78
15.6700   84
15.6800   78
15.6900   87
15.7000   96
15.7100   71
15.7200   88
15.7300   84
15.7400   89
15.7500   78
15.7600   84
15.7700   74
15.7800   78
15.7900   82
15.8000   76
15.8100   75
15.8200   74
15.8300   79
15.8400   75
15.8500   77
15.8600   79
15.8700   60
15.8800   78
15.8900   77
15.9000   81
15.9100   62
15.9200   66
15.9300   65
15.9400   70
15.9500   64
15.9600   74
15.9700   61
15.9800   80
15.9900   63
16.0000   65
16.0100   58
16.0200   76
16.0300   61
16.0400   63
16.0500   77
16.0600   49
16.0700   56
16.0800   60
16.0900   73
16.1000   72
16.1100   69
16.1200   62
16.1300   53
16.1400   69
16.1500   58
16.1600   63
16.1700   73
16.1800   72
16.1900   55
16.2000   49
16.2100   60
16.2200   55
16.2300   58
16.2400   48
16.2500   58
16.2600   72
16.2700   53
16.2800   63
16.2900   59
16.3000   66
16.3100   76
16.3200   52
16.3300   62
16.3400   55
16.3500   53
16.3600   63
16.3700   66
16.3800   64
16.3900   51
16.4000   55
16.4100   58
16.4200   48
16.4300   53
16.4400   60
16.4500   54
16.4600   56
16.4700   56
16.4800   60
16.4900   63
16.5000   56
16.5100   60
16.5200   46
16.5300   53
16.5400   40
16.5500   49
16.5600   63
16.5700   69
16.5800   59
16.5900   52
16.6000   48
16.6100   56
16.6200   61
16.6300   54
16.6400   53
16.6500   51
16.6600   60
16.6700   65
16.6800   58
16.6900   51
16.7000   45
16.7100   55
16.7200   39
16.7300   50
16.7400   47
16.7500   58
16.7600   60
16.7700   66
16.7800   42
16.7900   37
16.8000   45
16.8100   42
16.8200   45
16.8300   57
16.8400   38
16.8500   47
16.8600   58
16.8700   56
16.8800   53
16.8900   55
16.9000   42
16.9100   54
16.9200   52
16.9300   46
16.9400   51
16.9500   63
16.9600   54
16.9700   62
16.9800   49
16.9900   67
17.0000   41
17.0100   50
17.0200   39
17.0300   46
17.0400   63
17.0500   43
17.0600   50
17.0700   51
17.0800   55
17.0900   59
17.1000   43
17.1100   41
17.1200   59
17.1300   54
17.1400   58
17.1500   53
17.1600   55
17.1700   48
17.1800   60
17.1900   48
17.2000   41
17.2100   46
17.2200   55
17.2300   54
17.2400   49
17.2500   58
17.2600   50
17.2700   51
17.2800   55
17.2900   56
17.3000   63
17.3100   35
17.3200   46
17.3300   53
17.3400   39
17.3500   48
17.3600   46
17.3700   57
17.3800   56
17.3900   36
17.4000   64
17.4100   50
17.4200   51
17.4300   46
17.4400   48
17.4500   45
17.4600   47
17.4700   51
17.4800   56
17.4900   47
17.5000   46
17.5100   51
17.5200   67
17.5300   61
17.5400   48
17.5500   50
17.5600   59
17.5700   49
17.5800   44
17.5900   51
17.6000   49
17.6100   47
17.6200   47
17.6300   43
17.6400   45
17.6500   52
17.6600   44
17.6700   58
17.6800   29
17.6900   52
17.7000   52
17.7100   53
17.7200   53
17.7300   47
17.7400   51
17.7500   47
17.7600   55
17.7700   47
17.7800   34
17.7900   61
17.8000   62
17.8100   54
17.8200   51
17.8300   63
17.8400   48
17.8500   53
17.8600   52
17.8700   53
17.8800   57
17.8900   44
17.9000   44
17.9100   40
17.9200   49
17.9300   43
17.9400   56
17.9500   43
17.9600   61
17.9700   47
17.9800   49
17.9900   50
18.0000   60
18.0100   32
18.0200   44
18.0300   56
18.0400   60
18.0500   51
18.0600   48
18.0700   55
18.0800   46
18.0900   55
18.1000   52
18.1100   46
18.1200   40
18.1300   37
18.1400   37
18.1500   55
18.1600   46
18.1700   46
18.1800   45
18.1900   58
18.2000   37
18.2100   40
18.2200   51
18.2300   45
18.2400   49
18.2500   44
18.2600   40
18.2700   36
18.2800   47
18.2900   60
18.3000   42
18.3100   40
18.3200   55
18.3300   50
18.3400   44
18.3500   48
18.3600   45
18.3700   47
18.3800   57
18.3900   44
18.4000   52
18.4100   43
18.4200   50
18.4300   46
18.4400   45
18.4500   37
18.4600   43
18.4700   47
18.4800   45
18.4900   40
18.5000   51
18.5100   60
18.5200   52
18.5300   45
18.5400   48
18.5500   38
18.5600   48
18.5700   45
18.5800   37
18.5900   52
18.6000   55
18.6100   42
18.6200   29
18.6300   37
18.6400   35
18.6500   43
18.6600   43
18.6700   42
18.6800   42
18.6900   47
18.7000   43
18.7100   37
18.7200   47
18.7300   53
18.7400   55
18.7500   52
18.7600   54
18.7700   30
18.7800   38
18.7900   38
18.8000   43
18.8100   47
18.8200   43
18.8300   53
18.8400   74
18.8500   48
18.8600   48
18.8700   46
18.8800   54
18.8900   43
18.9000   48
18.9100   48
18.9200   39
18.9300   48
18.9400   49
18.9500   42
18.9600   48
18.9700   48
18.9800   44
18.9900   45
19.0000   58
19.0100   52
19.0200   57
19.0300   39
19.0400   39
19.0500   31
19.0600   42
19.0700   36
19.0800   49
19.0900   40
19.1000   39
19.1100   48
19.1200   39
19.1300   56
19.1400   45
19.1500   37
19.1600   41
19.1700   50
19.1800   45
19.1900   52
19.2000   38
19.2100   45
19.2200   51
19.2300   45
19.2400   44
19.2500   34
19.2600   47
19.2700   34
19.2800   42
19.2900   46
19.3000   43
19.3100   48
19.3200   61
19.3300   47
19.3400   46
19.3500   27
19.3600   33
19.3700   32
19.3800   46
19.3900   34
19.4000   50
19.4100   49
19.4200   44
19.4300   44
19.4400   58
19.4500   36
19.4600   33
19.4700   49
19.4800   41
19.4900   50
19.5000   31
19.5100   46
19.5200   46
19.5300   53
19.5400   44
19.5500   42
19.5600   47
19.5700   40
19.5800   52
19.5900   44
19.6000   45
19.6100   39
19.6200   44
19.6300   59
19.6400   52
19.6500   40
19.6600   39
19.6700   48
19.6800   54
19.6900   52
19.7000   39
19.7100   38
19.7200   33
19.7300   44
19.7400   42
19.7500   37
19.7600   36
19.7700   50
19.7800   35
19.7900   46
19.8000   50
19.8100   51
19.8200   36
19.8300   48
19.8400   56
19.8500   34
19.8600   52
19.8700   38
19.8800   29
19.8900   39
19.9000   43
19.9100   37
19.9200   37
19.9300   40
19.9400   36
19.9500   39
19.9600   39
19.9700   51
19.9800   57
19.9900   56
20.0000   40
20.0100   45
20.0200   43
20.0300   37
20.0400   35
20.0500   48
20.0600   49
20.0700   28
20.0800   39
20.0900   46
20.1000   37
20.1100   36
20.1200   42
20.1300   33
20.1400   43
20.1500   40
20.1600   49
20.1700   38
20.1800   37
20.1900   49
20.2000   38
20.2100   45
20.2200   41
20.2300   35
20.2400   40
20.2500   40
20.2600   38
20.2700   42
20.2800   27
20.2900   31
20.3000   42
20.3100   35
20.3200   36
20.3300   40
20.3400   41
20.3500   38
20.3600   40
20.3700   47
20.3800   36
20.3900   38
20.4000   31
20.4100   47
20.4200   33
20.4300   32
20.4400   44
20.4500   32
20.4600   35
20.4700   42
20.4800   53
20.4900   44
20.5000   41
20.5100   36
20.5200   37
20.5300   34
20.5400   30
20.5500   37
20.5600   45
20.5700   39
20.5800   32
20.5900   37
20.6000   44
20.6100   39
20.6200   34
20.6300   42
20.6400   38
20.6500   32
20.6600   33
20.6700   46
20.6800   41
20.6900   45
20.7000   38
20.7100   44
20.7200   46
20.7300   43
20.7400   30
20.7500   38
20.7600   48
20.7700   41
20.7800   36
20.7900   45
20.8000   42
20.8100   45
20.8200   43
20.8300   34
20.8400   34
20.8500   49
20.8600   48
20.8700   40
20.8800   38
20.8900   42
20.9000   36
20.9100   36
20.9200   41
20.9300   39
20.9400   34
20.9500   40
20.9600   38
20.9700   43
20.9800   42
20.9900   44
21.0000   40
21.0100   42
21.0200   54
21.0300   33
21.0400   28
21.0500   42
21.0600   49
21.0700   36
21.0800   43
21.0900   46
21.1000   43
21.1100   41
21.1200   47
21.1300   33
21.1400   40
21.1500   41
21.1600   37
21.1700   34
21.1800   39
21.1900   40
21.2000   42
21.2100   37
21.2200   41
21.2300   51
21.2400   43
21.2500   42
21.2600   41
21.2700   50
21.2800   39
21.2900   41
21.3000   46
21.3100   42
21.3200   38
21.3300   28
21.3400   40
21.3500   37
21.3600   34
21.3700   40
21.3800   48
21.3900   40
21.4000   51
21.4100   49
21.4200   53
21.4300   33
21.4400   48
21.4500   48
21.4600   41
21.4700   44
21.4800   35
21.4900   50
21.5000   43
21.5100   48
21.5200   34
21.5300   33
21.5400   49
21.5500   43
21.5600   50
21.5700   45
21.5800   47
21.5900   41
21.6000   39
21.6100   47
21.6200   36
21.6300   48
21.6400   46
21.6500   39
21.6600   43
21.6700   34
21.6800   44
21.6900   48
21.7000   43
21.7100   42
21.7200   39
21.7300   41
21.7400   42
21.7500   37
21.7600   34
21.7700   34
21.7800   34
21.7900   29
21.8000   37
21.8100   42
21.8200   47
21.8300   26
21.8400   39
21.8500   37
21.8600   40
21.8700   36
21.8800   40
21.8900   33
21.9000   41
21.9100   31
21.9200   35
21.9300   40
21.9400   43
21.9500   48
21.9600   43
21.9700   41
21.9800   40
21.9900   45
22.0000   31
22.0100   41
22.0200   33
22.0300   49
22.0400   40
22.0500   41
22.0600   34
22.0700   45
22.0800   40
22.0900   32
22.1000   41
22.1100   42
22.1200   36
22.1300   40
22.1400   37
22.1500   29
22.1600   25
22.1700   29
22.1800   32
22.1900   35
22.2000   37
22.2100   31
22.2200   37
22.2300   35
22.2400   34
22.2500   39
22.2600   38
22.2700   39
22.2800   33
22.2900   39
22.3000   31
22.3100   33
22.3200   44
22.3300   42
22.3400   26
22.3500   24
22.3600   29
22.3700   36
22.3800   27
22.3900   31
22.4000   36
22.4100   34
22.4200   31
22.4300   40
22.4400   34
22.4500   45
22.4600   40
22.4700   35
22.4800   40
22.4900   38
22.5000   31
22.5100   33
22.5200   31
22.5300   43
22.5400   35
22.5500   40
22.5600   33
22.5700   36
22.5800   41
22.5900   28
22.6000   42
22.6100   36
22.6200   42
22.6300   38
22.6400   37
22.6500   40
22.6600   32
22.6700   31
22.6800   38
22.6900   45
22.7000   35
22.7100   29
22.7200   36
22.7300   40
22.7400   40
22.7500   27
22.7600   38
22.7700   37
22.7800   41
22.7900   31
22.8000   41
22.8100   38
22.8200   30
22.8300   31
22.8400   35
22.8500   32
22.8600   36
22.8700   26
22.8800   28
22.8900   29
22.9000   41
22.9100   32
22.9200   40
22.9300   29
22.9400   36
22.9500   34
22.9600   38
22.9700   38
22.9800   38
22.9900   33
23.0000   23
23.0100   29
23.0200   31
23.0300   29
23.0400   39
23.0500   39
23.0600   37
23.0700   26
23.0800   31
23.0900   30
23.1000   35
23.1100   41
23.1200   42
23.1300   39
23.1400   29
23.1500   42
23.1600   25
23.1700   28
23.1800   38
23.1900   34
23.2000   26
23.2100   30
23.2200   24
23.2300   27
23.2400   28
23.2500   39
23.2600   29
23.2700   37
23.2800   39
23.2900   28
23.3000   32
23.3100   27
23.3200   22
23.3300   30
23.3400   33
23.3500   26
23.3600   34
23.3700   30
23.3800   33
23.3900   31
23.4000   31
23.4100   37
23.4200   30
23.4300   29
23.4400   32
23.4500   40
23.4600   35
23.4700   45
23.4800   39
23.4900   37
23.5000   31
23.5100   31
23.5200   27
23.5300   31
23.5400   23
23.5500   29
23.5600   25
23.5700   36
23.5800   41
23.5900   30
23.6000   34
23.6100   30
23.6200   36
23.6300   39
23.6400   29
23.6500   30
23.6600   29
23.6700   35
23.6800   29
23.6900   33
23.7000   40
23.7100   32
23.7200   36
23.7300   26
23.7400   23
23.7500   15
23.7600   40
23.7700   31
23.7800   31
23.7900   26
23.8000   25
23.8100   30
23.8200   28
23.8300   35
23.8400   27
23.8500   30
23.8600   31
23.8700   41
23.8800   24
23.8900   30
23.9000   37
23.9100   30
23.9200   35
23.9300   48
23.9400   27
23.9500   32
23.9600   32
23.9700   25
23.9800   29
23.9900   32
24.0000   37
24.0100   25
24.0200   32
24.0300   21
24.0400   32
24.0500   28
24.0600   37
24.0700   38
24.0800   39
24.0900   34
24.1000   36
24.1100   28
24.1200   35
24.1300   42
24.1400   33
24.1500   33
24.1600   32
24.1700   33
24.1800   26
24.1900   33
24.2000   32
24.2100   23
24.2200   31
24.2300   36
24.2400   39
24.2500   30
24.2600   19
24.2700   25
24.2800   29
24.2900   32
24.3000   33
24.3100   33
24.3200   30
24.3300   38
24.3400   36
24.3500   39
24.3600   29
24.3700   33
24.3800   26
24.3900   36
24.4000   26
24.4100   26
24.4200   21
24.4300   30
24.4400   32
24.4500   27
24.4600   35
24.4700   36
24.4800   36
24.4900   41
24.5000   25
24.5100   22
24.5200   32
24.5300   36
24.5400   36
24.5500   34
24.5600   34
24.5700   32
24.5800   27
24.5900   30
24.6000   30
24.6100   24
24.6200   34
24.6300   33
24.6400   29
24.6500   26
24.6600   35
24.6700   35
24.6800   23
24.6900   26
24.7000   31
24.7100   31
24.7200   36
24.7300   35
24.7400   28
24.7500   25
24.7600   30
24.7700   33
24.7800   29
24.7900   22
24.8000   23
24.8100   34
24.8200   29
24.8300   26
24.8400   35
24.8500   22
24.8600   30
24.8700   23
24.8800   28
24.8900   24
24.9000   23
24.9100   30
24.9200   29
24.9300   33
24.9400   35
24.9500   28
24.9600   35
24.9700   30
24.9800   33
24.9900   27
25.0000   29
25.0100   34
25.0200   25
25.0300   28
25.0400   31
25.0500   36
25.0600   29
25.0700   30
25.0800   26
25.0900   30
25.1000   30
25.1100   22
25.1200   23
25.1300   27
25.1400   28
25.1500   38
25.1600   21
25.1700   30
25.1800   30
25.1900   21
