TotalSpectrum-x_point	TotalSpectrum-y_point	TotalSpectrum-x_line	TotalSpectrum-y_line	Subspectrum2-x_line	Subspectrum2-y_line	Subspectrum3-x_line	Subspectrum3-y_line
-13.0254	148409	-13.0254	148384	-13.0254	148396	-13.0254	148406
-13.0242	147990	-13.0242	148384	-13.0242	148396	-13.0242	148406
-13.0225	148585	-13.0225	148384	-13.0225	148396	-13.0225	148406
-13.0203	148774	-13.0203	148384	-13.0203	148396	-13.0203	148406
-13.0176	148531	-13.0176	148384	-13.0176	148396	-13.0176	148406
-13.0144	148112	-13.0144	148384	-13.0144	148396	-13.0144	148406
-13.0107	148454	-13.0107	148384	-13.0107	148396	-13.0107	148406
-13.0065	148629	-13.0065	148384	-13.0065	148396	-13.0065	148405
-13.0019	148987	-13.0019	148384	-13.0019	148396	-13.0019	148405
-12.9967	149227	-12.9967	148384	-12.9967	148396	-12.9967	148405
-12.9911	148867	-12.9911	148384	-12.9911	148396	-12.9911	148405
-12.985	148636	-12.985	148384	-12.985	148396	-12.985	148405
-12.9784	148458	-12.9784	148384	-12.9784	148396	-12.9784	148405
-12.9713	148067	-12.9713	148384	-12.9713	148396	-12.9713	148405
-12.9637	148538	-12.9637	148384	-12.9637	148396	-12.9637	148405
-12.9556	148124	-12.9556	148384	-12.9556	148396	-12.9556	148405
-12.947	148041	-12.947	148384	-12.947	148396	-12.947	148405
-12.938	148612	-12.938	148384	-12.938	148396	-12.938	148405
-12.9284	147627	-12.9284	148383	-12.9284	148396	-12.9284	148405
-12.9184	147770	-12.9184	148383	-12.9184	148396	-12.9184	148405
-12.9079	148872	-12.9079	148383	-12.9079	148396	-12.9079	148405
-12.8969	148061	-12.8969	148383	-12.8969	148395	-12.8969	148405
-12.8854	147959	-12.8854	148383	-12.8854	148395	-12.8854	148405
-12.8734	148357	-12.8734	148383	-12.8734	148395	-12.8734	148405
-12.861	148412	-12.861	148383	-12.861	148395	-12.861	148405
-12.848	147823	-12.848	148383	-12.848	148395	-12.848	148405
-12.8346	148517	-12.8346	148383	-12.8346	148395	-12.8346	148405
-12.8207	147984	-12.8207	148382	-12.8207	148395	-12.8207	148405
-12.8063	148157	-12.8063	148382	-12.8063	148395	-12.8063	148405
-12.7915	148605	-12.7915	148382	-12.7915	148395	-12.7915	148405
-12.7761	148639	-12.7761	148382	-12.7761	148395	-12.7761	148405
-12.7603	148416	-12.7603	148382	-12.7603	148395	-12.7603	148405
-12.744	148298	-12.744	148382	-12.744	148395	-12.744	148404
-12.7272	147630	-12.7272	148381	-12.7272	148394	-12.7272	148404
-12.7099	148482	-12.7099	148381	-12.7099	148394	-12.7099	148404
-12.6921	148238	-12.6921	148381	-12.6921	148394	-12.6921	148404
-12.6739	148684	-12.6739	148381	-12.6739	148394	-12.6739	148404
-12.6552	148427	-12.6552	148381	-12.6552	148394	-12.6552	148404
-12.636	148158	-12.636	148380	-12.636	148394	-12.636	148404
-12.6164	148898	-12.6164	148380	-12.6164	148394	-12.6164	148404
-12.5962	148176	-12.5962	148380	-12.5962	148394	-12.5962	148404
-12.5756	148370	-12.5756	148380	-12.5756	148393	-12.5756	148404
-12.5545	148520	-12.5545	148380	-12.5545	148393	-12.5545	148404
-12.533	148330	-12.533	148379	-12.533	148393	-12.533	148404
-12.511	149063	-12.511	148379	-12.511	148393	-12.511	148403
-12.4885	147904	-12.4885	148379	-12.4885	148393	-12.4885	148403
-12.4655	148956	-12.4655	148378	-12.4655	148393	-12.4655	148403
-12.4421	148262	-12.4421	148378	-12.4421	148393	-12.4421	148403
-12.4181	148440	-12.4181	148378	-12.4181	148392	-12.4181	148403
-12.3938	147882	-12.3938	148378	-12.3938	148392	-12.3938	148403
-12.3689	149053	-12.3689	148377	-12.3689	148392	-12.3689	148403
-12.3436	148522	-12.3436	148377	-12.3436	148392	-12.3436	148403
-12.3179	148122	-12.3179	148377	-12.3179	148392	-12.3179	148403
-12.2916	148283	-12.2916	148376	-12.2916	148391	-12.2916	148402
-12.2649	148628	-12.2649	148376	-12.2649	148391	-12.2649	148402
-12.2378	147982	-12.2378	148376	-12.2378	148391	-12.2378	148402
-12.2102	148138	-12.2102	148375	-12.2102	148391	-12.2102	148402
-12.1821	147693	-12.1821	148375	-12.1821	148391	-12.1821	148402
-12.1535	148291	-12.1535	148374	-12.1535	148390	-12.1535	148402
-12.1245	148627	-12.1245	148374	-12.1245	148390	-12.1245	148401
-12.0951	148748	-12.0951	148374	-12.0951	148390	-12.0951	148401
-12.0652	147947	-12.0652	148373	-12.0652	148390	-12.0652	148401
-12.0348	147685	-12.0348	148373	-12.0348	148389	-12.0348	148401
-12.004	148461	-12.004	148372	-12.004	148389	-12.004	148401
-11.9727	147529	-11.9727	148372	-11.9727	148389	-11.9727	148401
-11.941	147989	-11.941	148371	-11.941	148388	-11.941	148400
-11.9089	148118	-11.9089	148371	-11.9089	148388	-11.9089	148400
-11.8762	148554	-11.8762	148370	-11.8762	148388	-11.8762	148400
-11.8432	148270	-11.8432	148370	-11.8432	148387	-11.8432	148400
-11.8097	148976	-11.8097	148369	-11.8097	148387	-11.8097	148399
-11.7757	147733	-11.7757	148369	-11.7757	148387	-11.7757	148399
-11.7413	148264	-11.7413	148368	-11.7413	148386	-11.7413	148399
-11.7065	148567	-11.7065	148367	-11.7065	148386	-11.7065	148399
-11.6712	148221	-11.6712	148367	-11.6712	148386	-11.6712	148398
-11.6355	148320	-11.6355	148366	-11.6355	148385	-11.6355	148398
-11.5993	148392	-11.5993	148365	-11.5993	148385	-11.5993	148398
-11.5627	148520	-11.5627	148365	-11.5627	148385	-11.5627	148398
-11.5257	148636	-11.5257	148364	-11.5257	148384	-11.5257	148397
-11.4883	148204	-11.4883	148363	-11.4883	148384	-11.4883	148397
-11.4504	148579	-11.4504	148362	-11.4504	148383	-11.4504	148397
-11.412	148022	-11.412	148361	-11.412	148383	-11.412	148396
-11.3733	148079	-11.3733	148361	-11.3733	148382	-11.3733	148396
-11.3341	148168	-11.3341	148360	-11.3341	148382	-11.3341	148395
-11.2945	147598	-11.2945	148359	-11.2945	148381	-11.2945	148395
-11.2545	148726	-11.2545	148358	-11.2545	148381	-11.2545	148395
-11.214	148048	-11.214	148357	-11.214	148380	-11.214	148394
-11.1731	148379	-11.1731	148356	-11.1731	148380	-11.1731	148394
-11.1318	147412	-11.1318	148355	-11.1318	148379	-11.1318	148393
-11.0901	148497	-11.0901	148354	-11.0901	148378	-11.0901	148393
-11.048	148956	-11.048	148352	-11.048	148378	-11.048	148392
-11.0054	147557	-11.0054	148351	-11.0054	148377	-11.0054	148392
-10.9624	147568	-10.9624	148350	-10.9624	148376	-10.9624	148391
-10.9191	148861	-10.9191	148349	-10.9191	148376	-10.9191	148391
-10.8753	148899	-10.8753	148347	-10.8753	148375	-10.8753	148390
-10.8311	147808	-10.8311	148346	-10.8311	148374	-10.8311	148389
-10.7864	147887	-10.7864	148344	-10.7864	148373	-10.7864	148389
-10.7414	148698	-10.7414	148343	-10.7414	148372	-10.7414	148388
-10.696	148203	-10.696	148341	-10.696	148371	-10.696	148387
-10.6502	148054	-10.6502	148339	-10.6502	148371	-10.6502	148386
-10.604	148977	-10.604	148338	-10.604	148370	-10.604	148385
-10.5573	148710	-10.5573	148336	-10.5573	148369	-10.5573	148385
-10.5103	147787	-10.5103	148334	-10.5103	148368	-10.5103	148384
-10.4629	148708	-10.4629	148332	-10.4629	148366	-10.4629	148383
-10.4151	148405	-10.4151	148330	-10.4151	148365	-10.4151	148382
-10.3669	148466	-10.3669	148327	-10.3669	148364	-10.3669	148381
-10.3183	148295	-10.3183	148325	-10.3183	148363	-10.3183	148379
-10.2693	148176	-10.2693	148322	-10.2693	148362	-10.2693	148378
-10.2199	147967	-10.2199	148320	-10.2199	148360	-10.2199	148377
-10.1702	148541	-10.1702	148317	-10.1702	148359	-10.1702	148375
-10.1201	148341	-10.1201	148314	-10.1201	148357	-10.1201	148374
-10.0695	148483	-10.0695	148311	-10.0695	148356	-10.0695	148372
-10.0186	147971	-10.0186	148307	-10.0186	148354	-10.0186	148371
-9.96738	148447	-9.96738	148304	-9.96738	148352	-9.96738	148369
-9.91573	147977	-9.91573	148300	-9.91573	148350	-9.91573	148367
-9.8637	148350	-9.8637	148296	-9.8637	148348	-9.8637	148365
-9.81131	148147	-9.81131	148291	-9.81131	148346	-9.81131	148362
-9.75855	148087	-9.75855	148287	-9.75855	148344	-9.75855	148360
-9.70542	148304	-9.70542	148282	-9.70542	148342	-9.70542	148357
-9.65193	148352	-9.65193	148276	-9.65193	148340	-9.65193	148354
-9.59807	148110	-9.59807	148271	-9.59807	148337	-9.59807	148351
-9.54385	148726	-9.54385	148264	-9.54385	148334	-9.54385	148348
-9.48927	147627	-9.48927	148258	-9.48927	148331	-9.48927	148344
-9.43433	148100	-9.43433	148250	-9.43433	148328	-9.43433	148340
-9.37904	148776	-9.37904	148243	-9.37904	148325	-9.37904	148335
-9.3234	147803	-9.3234	148234	-9.3234	148321	-9.3234	148330
-9.2674	147777	-9.2674	148225	-9.2674	148317	-9.2674	148325
-9.21106	148119	-9.21106	148214	-9.21106	148313	-9.21106	148318
-9.15436	148111	-9.15436	148203	-9.15436	148309	-9.15436	148311
-9.09733	148545	-9.09733	148190	-9.09733	148304	-9.09733	148304
-9.03995	148563	-9.03995	148176	-9.03995	148299	-9.03995	148295
-8.98223	148531	-8.98223	148161	-8.98223	148294	-8.98223	148285
-8.92417	147789	-8.92417	148143	-8.92417	148288	-8.92417	148273
-8.86578	148586	-8.86578	148124	-8.86578	148281	-8.86578	148260
-8.80705	148379	-8.80705	148101	-8.80705	148274	-8.80705	148245
-8.748	148324	-8.748	148076	-8.748	148266	-8.748	148227
-8.68861	147975	-8.68861	148047	-8.68861	148258	-8.68861	148206
-8.62889	147809	-8.62889	148012	-8.62889	148249	-8.62889	148181
-8.56885	147323	-8.56885	147972	-8.56885	148238	-8.56885	148152
-8.50849	147524	-8.50849	147925	-8.50849	148227	-8.50849	148115
-8.44781	148146	-8.44781	147868	-8.44781	148214	-8.44781	148071
-8.38681	147800	-8.38681	147798	-8.38681	148200	-8.38681	148015
-8.32549	148034	-8.32549	147711	-8.32549	148184	-8.32549	147944
-8.26386	147542	-8.26386	147601	-8.26386	148167	-8.26386	147852
-8.20192	147594	-8.20192	147459	-8.20192	148147	-8.20192	147729
-8.13967	147091	-8.13967	147269	-8.13967	148124	-8.13967	147562
-8.07711	146562	-8.07711	147007	-8.07711	148098	-8.07711	147327
-8.01425	145904	-8.01425	146633	-8.01425	148067	-8.01425	146983
-7.95109	145310	-7.95109	146077	-7.95109	148032	-7.95109	146462
-7.88763	143769	-7.88763	145216	-7.88763	147991	-7.88763	145642
-7.82387	143039	-7.82387	143860	-7.82387	147943	-7.82387	144334
-7.75982	140072	-7.75982	141866	-7.75982	147885	-7.75982	142399
-7.69547	138564	-7.69547	139800	-7.69547	147816	-7.69547	140402
-7.63084	137897	-7.63084	139495	-7.63084	147731	-7.63084	140182
-7.56592	139154	-7.56592	141241	-7.56592	147625	-7.56592	142033
-7.50071	142098	-7.50071	143158	-7.50071	147493	-7.50071	144083
-7.43522	143889	-7.43522	144414	-7.43522	147323	-7.43522	145509
-7.36945	144632	-7.36945	145083	-7.36945	147100	-7.36945	146400
-7.3034	145972	-7.3034	145345	-7.3034	146802	-7.3034	146960
-7.23708	145384	-7.23708	145299	-7.23708	146392	-7.23708	147324
-7.17049	144442	-7.17049	144962	-7.17049	145810	-7.17049	147570
-7.10362	144493	-7.10362	144280	-7.10362	144956	-7.10362	147741
-7.03649	142632	-7.03649	143111	-7.03649	143663	-7.03649	147866
-6.96909	140915	-6.96909	141216	-6.96909	141675	-6.96909	147958
-6.90143	138672	-6.90143	138343	-6.90143	138732	-6.90143	148028
-6.83352	135635	-6.83352	134837	-6.83352	135172	-6.83352	148082
-6.76534	134546	-6.76534	132827	-6.76534	133119	-6.76534	148125
-6.69691	136378	-6.69691	134479	-6.69691	134737	-6.69691	148159
-6.62822	137781	-6.62822	138068	-6.62822	138299	-6.62822	148186
-6.55929	140282	-6.55929	141196	-6.55929	141405	-6.55929	148209
-6.49011	142881	-6.49011	143332	-6.49011	143523	-6.49011	148227
-6.42069	144597	-6.42069	144716	-6.42069	144892	-6.42069	148242
-6.35102	145235	-6.35102	145624	-6.35102	145787	-6.35102	148254
-6.28112	145857	-6.28112	146237	-6.28112	146390	-6.28112	148264
-6.21098	146406	-6.21098	146664	-6.21098	146809	-6.21098	148272
-6.1406	147306	-6.1406	146971	-6.1406	147110	-6.1406	148279
-6.07	147519	-6.07	147197	-6.07	147331	-6.07	148284
-5.99916	147352	-5.99916	147367	-5.99916	147498	-5.99916	148287
-5.9281	147150	-5.9281	147498	-5.9281	147625	-5.9281	148290
-5.85682	147105	-5.85682	147598	-5.85682	147725	-5.85682	148291
-5.78531	147962	-5.78531	147676	-5.78531	147803	-5.78531	148291
-5.71359	147777	-5.71359	147737	-5.71359	147866	-5.71359	148289
-5.64165	148027	-5.64165	147784	-5.64165	147915	-5.64165	148287
-5.5695	147284	-5.5695	147820	-5.5695	147955	-5.5695	148282
-5.49714	147278	-5.49714	147846	-5.49714	147987	-5.49714	148276
-5.42458	147833	-5.42458	147862	-5.42458	148012	-5.42458	148268
-5.35181	147171	-5.35181	147871	-5.35181	148031	-5.35181	148257
-5.27883	147042	-5.27883	147871	-5.27883	148045	-5.27883	148244
-5.20566	148283	-5.20566	147862	-5.20566	148054	-5.20566	148225
-5.1323	147152	-5.1323	147843	-5.1323	148059	-5.1323	148202
-5.05874	147615	-5.05874	147812	-5.05874	148060	-5.05874	148170
-4.98499	148646	-4.98499	147766	-4.98499	148056	-4.98499	148127
-4.91105	147796	-4.91105	147699	-4.91105	148048	-4.91105	148069
-4.83693	147894	-4.83693	147602	-4.83693	148034	-4.83693	147985
-4.76262	147162	-4.76262	147459	-4.76262	148015	-4.76262	147862
-4.68814	146578	-4.68814	147242	-4.68814	147988	-4.68814	147672
-4.61348	146788	-4.61348	146897	-4.61348	147952	-4.61348	147362
-4.53864	145927	-4.53864	146325	-4.53864	147906	-4.53864	146837
-4.46364	144040	-4.46364	145379	-4.46364	147844	-4.46364	145952
-4.38846	142157	-4.38846	144116	-4.38846	147763	-4.38846	144770
-4.31312	139716	-4.31312	143413	-4.31312	147654	-4.31312	144176
-4.23762	141191	-4.23762	143854	-4.23762	147506	-4.23762	144765
-4.16196	142804	-4.16196	144756	-4.16196	147298	-4.16196	145875
-4.08614	145000	-4.08614	145361	-4.08614	146998	-4.08614	146780
-4.01017	144616	-4.01017	145467	-4.01017	146550	-4.01017	147335
-3.93405	145442	-3.93405	145096	-3.93405	145853	-3.93405	147660
-3.85778	143663	-3.85778	144171	-3.85778	144730	-3.85778	147859
-3.78136	142123	-3.78136	142485	-3.78136	142916	-3.78136	147987
-3.70481	138777	-3.70481	139990	-3.70481	140336	-3.70481	148072
-3.62811	136727	-3.62811	137966	-3.62811	138251	-3.62811	148132
-3.55127	138412	-3.55127	138770	-3.55127	139013	-3.55127	148175
-3.47431	141114	-3.47431	141436	-3.47431	141646	-3.47431	148207
-3.39721	144206	-3.39721	143725	-3.39721	143912	-3.39721	148231
-3.31998	145710	-3.31998	145201	-3.31998	145370	-3.31998	148249
-3.24263	146598	-3.24263	146111	-3.24263	146265	-3.24263	148263
-3.16516	146787	-3.16516	146685	-3.16516	146829	-3.16516	148274
-3.08756	147728	-3.08756	147063	-3.08756	147198	-3.08756	148282
-3.00985	147831	-3.00985	147321	-3.00985	147450	-3.00985	148288
-2.93203	147524	-2.93203	147503	-2.93203	147629	-2.93203	148292
-2.8541	147513	-2.8541	147635	-2.8541	147758	-2.8541	148294
-2.77606	148348	-2.77606	147733	-2.77606	147855	-2.77606	148296
-2.69792	148069	-2.69792	147807	-2.69792	147929	-2.69792	148295
-2.61967	148192	-2.61967	147862	-2.61967	147986	-2.61967	148294
-2.54133	147488	-2.54133	147904	-2.54133	148031	-2.54133	148291
-2.46288	148538	-2.46288	147935	-2.46288	148066	-2.46288	148287
-2.38435	147743	-2.38435	147958	-2.38435	148094	-2.38435	148281
-2.30573	147659	-2.30573	147972	-2.30573	148116	-2.30573	148274
-2.22702	147897	-2.22702	147980	-2.22702	148133	-2.22702	148264
-2.14822	147712	-2.14822	147981	-2.14822	148146	-2.14822	148252
-2.06935	147733	-2.06935	147975	-2.06935	148155	-2.06935	148237
-1.9904	148294	-1.9904	147962	-1.9904	148161	-1.9904	148218
-1.91137	148209	-1.91137	147940	-1.91137	148163	-1.91137	148194
-1.83227	148019	-1.83227	147909	-1.83227	148163	-1.83227	148164
-1.7531	148923	-1.7531	147864	-1.7531	148158	-1.7531	148124
-1.67387	147701	-1.67387	147803	-1.67387	148150	-1.67387	148070
-1.59457	148003	-1.59457	147718	-1.59457	148137	-1.59457	147998
-1.51521	147645	-1.51521	147597	-1.51521	148118	-1.51521	147897
-1.4358	147824	-1.4358	147424	-1.4358	148090	-1.4358	147751
-1.35633	147669	-1.35633	147165	-1.35633	148054	-1.35633	147529
-1.27681	147172	-1.27681	146764	-1.27681	148009	-1.27681	147173
-1.19724	146125	-1.19724	146105	-1.19724	147952	-1.19724	146571
-1.11763	147180	-1.11763	144953	-1.11763	147870	-1.11763	145500
-1.03798	144861	-1.03798	143020	-1.03798	147750	-1.03798	143688
-0.958281	142766	-0.958281	140891	-0.958281	147568	-0.958281	141741
-0.878551	143706	-0.878551	140999	-0.878551	147284	-0.878551	142132
-0.798788	145019	-0.798788	142643	-0.798788	146824	-0.798788	144237
-0.718995	144869	-0.718995	143483	-0.718995	146060	-0.718995	145841
-0.639175	143798	-0.639175	143201	-0.639175	144862	-0.639175	146757
-0.559331	141747	-0.559331	142402	-0.559331	143544	-0.559331	147276
-0.479466	141123	-0.479466	142571	-0.479466	143403	-0.479466	147585
-0.399582	142979	-0.399582	143995	-0.399582	144633	-0.399582	147779
-0.319684	145456	-0.319684	145387	-0.319684	145897	-0.319684	147908
-0.239773	145884	-0.239773	146304	-0.239773	146725	-0.239773	147996
-0.159854	146863	-0.159854	146865	-0.159854	147225	-0.159854	148057
-0.079928	146615	-0.079928	147215	-0.079928	147531	-0.079928	148101
0	147387	0	147441	0	147726	0	148133
0.079928	148146	0.079928	147593	0.079928	147855	0.079928	148155
0.159854	148026	0.159854	147696	0.159854	147944	0.159854	148170
0.239773	147958	0.239773	147767	0.239773	148006	0.239773	148178
0.319684	147866	0.319684	147813	0.319684	148049	0.319684	148181
0.399582	147517	0.399582	147842	0.399582	148080	0.399582	148180
0.479466	147736	0.479466	147855	0.479466	148100	0.479466	148172
0.559331	148346	0.559331	147855	0.559331	148113	0.559331	148159
0.639175	148126	0.639175	147840	0.639175	148118	0.639175	148139
0.718995	148155	0.718995	147810	0.718995	148117	0.718995	148110
0.798788	147908	0.798788	147763	0.798788	148110	0.798788	148070
0.878551	147833	0.878551	147692	0.878551	148096	0.878551	148013
0.958281	148377	0.958281	147589	0.958281	148073	0.958281	147933
1.03798	147276	1.03798	147439	1.03798	148039	1.03798	147817
1.11763	147475	1.11763	147217	1.11763	147991	1.11763	147643
1.19724	147675	1.19724	146876	1.19724	147924	1.19724	147370
1.27681	147388	1.27681	146327	1.27681	147827	1.27681	146918
1.35633	147103	1.35633	145396	1.35633	147684	1.35633	146130
1.4358	145258	1.4358	143783	1.4358	147467	1.4358	144733
1.51521	143445	1.51521	141375	1.51521	147126	1.51521	142667
1.59457	142638	1.59457	139757	1.59457	146566	1.59457	141609
1.67387	142406	1.67387	140408	1.67387	145646	1.67387	143179
1.7531	142858	1.7531	141041	1.7531	144320	1.7531	145138
1.83227	141378	1.83227	141228	1.83227	143282	1.83227	146363
1.91137	141944	1.91137	142399	1.91137	143763	1.91137	147053
1.9904	144196	1.9904	144159	1.9904	145121	1.9904	147455
2.06935	145224	2.06935	145512	2.06935	146226	2.06935	147703
2.14822	147034	2.14822	146365	2.14822	146918	2.14822	147864
2.22702	147180	2.22702	146894	2.22702	147337	2.22702	147975
2.30573	148274	2.30573	147234	2.30573	147598	2.30573	148053
2.38435	147277	2.38435	147460	2.38435	147767	2.38435	148110
2.46288	147886	2.46288	147615	2.46288	147879	2.46288	148153
2.54133	147776	2.54133	147724	2.54133	147956	2.54133	148186
2.61967	147706	2.61967	147806	2.61967	148012	2.61967	148211
2.69792	148144	2.69792	147871	2.69792	148058	2.69792	148231
2.77606	148069	2.77606	147923	2.77606	148093	2.77606	148247
2.8541	148122	2.8541	147961	2.8541	148119	2.8541	148260
2.93203	147895	2.93203	147990	2.93203	148138	2.93203	148270
3.00985	148380	3.00985	148010	3.00985	148150	3.00985	148277
3.08756	147983	3.08756	148024	3.08756	148158	3.08756	148283
3.16516	148036	3.16516	148033	3.16516	148162	3.16516	148288
3.24263	148687	3.24263	148036	3.24263	148163	3.24263	148291
3.31998	148195	3.31998	148036	3.31998	148161	3.31998	148292
3.39721	148437	3.39721	148030	3.39721	148155	3.39721	148292
3.47431	148574	3.47431	148021	3.47431	148147	3.47431	148291
3.55127	148903	3.55127	148006	3.55127	148135	3.55127	148289
3.62811	148605	3.62811	147986	3.62811	148119	3.62811	148284
3.70481	147706	3.70481	147959	3.70481	148098	3.70481	148279
3.78136	148150	3.78136	147925	3.78136	148072	3.78136	148270
3.85778	147871	3.85778	147882	3.85778	148040	3.85778	148260
3.93405	148610	3.93405	147827	3.93405	147999	3.93405	148246
4.01017	148153	4.01017	147757	4.01017	147947	4.01017	148227
4.08614	147522	4.08614	147667	4.08614	147881	4.08614	148203
4.16196	147276	4.16196	147550	4.16196	147796	4.16196	148172
4.23762	147658	4.23762	147394	4.23762	147683	4.23762	148128
4.31312	147629	4.31312	147183	4.31312	147532	4.31312	148068
4.38846	147038	4.38846	146888	4.38846	147323	4.38846	147982
4.46364	146775	4.46364	146462	4.46364	147025	4.46364	147854
4.53864	145612	4.53864	145822	4.53864	146586	4.53864	147654
4.61348	144723	4.61348	144822	4.61348	145914	4.61348	147326
